"X - RawData"
"Wavelength nm.","T%"
400.00,0.25878
401.00,0.26076
402.00,0.26234
403.00,0.26283
404.00,0.26615
405.00,0.26869
406.00,0.27039
407.00,0.26898
408.00,0.27399
409.00,0.27396
410.00,0.27951
411.00,0.27325
412.00,0.27682
413.00,0.27791
414.00,0.27450
415.00,0.27241
416.00,0.26949
417.00,0.26828
418.00,0.26637
419.00,0.26000
420.00,0.26585
421.00,0.26315
422.00,0.26478
423.00,0.26969
424.00,0.27323
425.00,0.28558
426.00,0.30380
427.00,0.32507
428.00,0.34813
429.00,0.37422
430.00,0.39530
431.00,0.41651
432.00,0.43222
433.00,0.45346
434.00,0.46783
435.00,0.47462
436.00,0.48479
437.00,0.49391
438.00,0.49796
439.00,0.50978
440.00,0.51493
441.00,0.51682
442.00,0.52396
443.00,0.52924
444.00,0.53184
445.00,0.53951
446.00,0.54679
447.00,0.55023
448.00,0.55817
449.00,0.56097
450.00,0.56513
451.00,0.57131
452.00,0.57485
453.00,0.57679
454.00,0.58735
455.00,0.58917
456.00,0.59761
457.00,0.59835
458.00,0.60484
459.00,0.61060
460.00,0.61355
461.00,0.61481
462.00,0.62701
463.00,0.63119
464.00,0.63824
465.00,0.64019
466.00,0.64588
467.00,0.65142
468.00,0.65585
469.00,0.66471
470.00,0.67066
471.00,0.67333
472.00,0.68325
473.00,0.68736
474.00,0.69558
475.00,0.69706
476.00,0.70183
477.00,0.70538
478.00,0.71053
479.00,0.71788
480.00,0.72278
481.00,0.72730
482.00,0.73426
483.00,0.73744
484.00,0.74501
485.00,0.74926
486.00,0.75547
487.00,0.76140
488.00,0.76890
489.00,0.77178
490.00,0.77362
491.00,0.78237
492.00,0.78996
493.00,0.79207
494.00,0.79978
495.00,0.80094
496.00,0.80806
497.00,0.81088
498.00,0.81737
499.00,0.82431
500.00,0.82799
501.00,0.83795
502.00,0.83202
503.00,0.84679
504.00,0.85180
505.00,0.85460
506.00,0.85669
507.00,0.86166
508.00,0.87198
509.00,0.87787
510.00,0.88534
511.00,0.88805
512.00,0.89452
513.00,0.89806
514.00,0.89842
515.00,0.90092
516.00,0.90974
517.00,0.91739
518.00,0.91549
519.00,0.93037
520.00,0.92951
521.00,0.93201
522.00,0.93874
523.00,0.94440
524.00,0.94713
525.00,0.95126
526.00,0.95690
527.00,0.96389
528.00,0.96868
529.00,0.96998
530.00,0.96623
531.00,0.97590
532.00,0.97621
533.00,0.98798
534.00,0.98778
535.00,0.99333
536.00,0.99405
537.00,0.99873
538.00,1.00165
539.00,1.00606
540.00,1.00983
541.00,1.01328
542.00,1.02080
543.00,1.01980
544.00,1.02127
545.00,1.02732
546.00,1.03354
547.00,1.03108
548.00,1.03678
549.00,1.04361
550.00,1.04350
551.00,1.05020
552.00,1.04898
553.00,1.05472
554.00,1.06049
555.00,1.06529
556.00,1.06475
557.00,1.07010
558.00,1.07042
559.00,1.07356
560.00,1.08021
561.00,1.08812
562.00,1.10008
563.00,1.09989
564.00,1.10900
565.00,1.11430
566.00,1.12855
567.00,1.13739
568.00,1.14713
569.00,1.15615
570.00,1.15929
571.00,1.17171
572.00,1.18457
573.00,1.19387
574.00,1.20895
575.00,1.22216
576.00,1.24044
577.00,1.25095
578.00,1.26260
579.00,1.28195
580.00,1.30297
581.00,1.32152
582.00,1.33752
583.00,1.36417
584.00,1.39064
585.00,1.41149
586.00,1.43929
587.00,1.46715
588.00,1.50301
589.00,1.53225
590.00,1.56743
591.00,1.60820
592.00,1.65391
593.00,1.70402
594.00,1.75562
595.00,1.79962
596.00,1.85879
597.00,1.92311
598.00,1.98267
599.00,2.06086
600.00,2.12687
601.00,2.20413
602.00,2.28497
603.00,2.38214
604.00,2.47398
605.00,2.57859
606.00,2.68492
607.00,2.80113
608.00,2.90198
609.00,3.04388
610.00,3.17895
611.00,3.31639
612.00,3.47168
613.00,3.62281
614.00,3.79561
615.00,3.96873
616.00,4.17070
617.00,4.34506
618.00,4.57283
619.00,4.80460
620.00,5.03206
621.00,5.26228
622.00,5.51321
623.00,5.77806
624.00,6.03735
625.00,6.32578
626.00,6.61244
627.00,6.90782
628.00,7.19993
629.00,7.51206
630.00,7.84804
631.00,8.17690
632.00,8.48750
633.00,8.84733
634.00,9.20429
635.00,9.57597
636.00,9.95810
637.00,10.33434
638.00,10.74043
639.00,11.14056
640.00,11.56225
641.00,11.97142
642.00,12.40282
643.00,12.80644
644.00,13.21629
645.00,13.67172
646.00,14.09990
647.00,14.54263
648.00,14.94326
649.00,15.36943
650.00,15.82307
651.00,16.27886
652.00,16.69552
653.00,17.11718
654.00,17.52039
655.00,17.98431
656.00,18.37705
657.00,18.83413
658.00,19.30199
659.00,19.68933
660.00,20.16455
661.00,20.61011
662.00,21.03794
663.00,21.48603
664.00,21.90788
665.00,22.33476
666.00,22.71779
667.00,23.22559
668.00,23.57441
669.00,24.01866
670.00,24.43003
671.00,24.80847
672.00,25.21490
673.00,25.59234
674.00,25.92529
675.00,26.34391
676.00,26.72011
677.00,27.15991
678.00,27.48476
679.00,27.88580
680.00,28.23315
681.00,28.57068
682.00,28.92464
683.00,29.28538
684.00,29.60450
685.00,29.91897
686.00,30.28868
687.00,30.54222
688.00,30.94864
689.00,31.17697
690.00,31.46161
691.00,31.80614
692.00,32.12966
693.00,32.34212
694.00,32.60042
695.00,32.84191
696.00,33.14417
697.00,33.37940
698.00,33.61729
699.00,33.75567
700.00,34.14891
701.00,34.24586
702.00,34.45702
703.00,34.69166
704.00,34.89787
705.00,35.07859
706.00,35.28853
707.00,35.35906
708.00,35.57765
709.00,35.68439
710.00,35.96356
711.00,36.12340
712.00,36.34461
713.00,36.42237
714.00,36.49833
715.00,36.63890
716.00,36.72281
717.00,36.84339
718.00,36.96774
719.00,37.10774
720.00,37.19956
721.00,37.33977
722.00,37.40593
723.00,37.65316
724.00,37.61467
725.00,37.68115
726.00,37.89048
727.00,38.01849
728.00,37.99850
729.00,38.17666
730.00,38.25918
731.00,38.23971
732.00,38.42275
733.00,38.39863
734.00,38.48202
735.00,38.57074
736.00,38.56911
737.00,38.54730
738.00,38.90640
739.00,38.81144
740.00,38.72517
741.00,38.81810
742.00,38.95554
743.00,39.06693
744.00,39.08140
745.00,39.20671
746.00,39.09015
747.00,39.14357
748.00,39.35603
749.00,39.35781
750.00,39.45263
751.00,39.44697
752.00,39.50765
753.00,39.50123
754.00,39.62315
755.00,39.53428
756.00,39.60889
757.00,39.79152
758.00,39.70801
759.00,39.79856
760.00,39.82183
761.00,39.74371
762.00,39.87849
763.00,40.09138
764.00,39.99947
765.00,40.07104
766.00,40.18973
767.00,40.08057
768.00,40.15694
769.00,40.29982
770.00,40.04530
771.00,40.23063
772.00,40.44921
773.00,40.46327
774.00,40.43695
775.00,40.08763
776.00,40.39998
777.00,40.62172
778.00,40.58351
779.00,40.64437
780.00,40.58481
781.00,40.72468
782.00,40.80208
783.00,40.81715
784.00,40.95915
785.00,40.81997
786.00,40.82624
787.00,40.81486
788.00,40.96645
789.00,40.87263
790.00,41.16698
791.00,41.04027
792.00,41.19015
793.00,40.92830
794.00,41.12303
795.00,41.19334
796.00,41.41453
797.00,41.14147
798.00,41.35554
799.00,41.31743
800.00,41.22527
801.00,41.36021
802.00,41.23422
803.00,41.50319
804.00,41.42021
805.00,41.39273
806.00,41.57811
807.00,41.43175
808.00,41.55601
809.00,41.55181
810.00,41.55518
811.00,41.66515
812.00,41.63469
813.00,41.90156
814.00,41.78972
815.00,41.69443
816.00,41.94578
817.00,41.84645
818.00,42.03197
819.00,42.24426
820.00,42.32566
821.00,42.16815
822.00,42.03776
823.00,42.03283
824.00,42.12666
825.00,42.24692
826.00,42.27068
827.00,42.34739
828.00,42.29226
829.00,42.35630
830.00,42.47436
831.00,42.49218
832.00,42.75161
833.00,42.58129
834.00,42.71410
835.00,42.56104
836.00,42.22521
837.00,42.28398
838.00,43.02315
839.00,42.82401
840.00,43.29996
841.00,42.77934
842.00,42.57457
843.00,42.80330
844.00,42.80600
845.00,42.75524
846.00,42.71822
847.00,42.55220
848.00,43.11911
849.00,43.38650
850.00,43.55451
851.00,42.76266
852.00,42.81426
853.00,43.39280
854.00,42.90909
855.00,42.72584
856.00,43.02254
857.00,43.96546
858.00,42.10732
859.00,44.27014
860.00,42.14234
861.00,42.75525
862.00,42.40664
863.00,42.31366
864.00,45.20550
865.00,43.14671
866.00,44.58050
867.00,43.86643
868.00,43.09554
869.00,43.04966
870.00,41.11606
871.00,42.25492
872.00,43.48908
873.00,44.47221
874.00,41.62133
875.00,45.36475
876.00,43.31667
877.00,42.52998
878.00,41.59995
879.00,43.83103
880.00,43.94816
881.00,42.61237
882.00,43.90538
883.00,42.22529
884.00,46.72682
885.00,46.10445
886.00,45.71258
887.00,45.30751
888.00,50.04603
889.00,40.54322
890.00,41.57025
891.00,44.70174
892.00,40.20126
893.00,41.19108
894.00,44.51225
895.00,39.43881
896.00,37.90786
897.00,47.49880
898.00,41.35722
899.00,46.26364
900.00,50.99703
