"I - RawData"
"Wavelength nm.","T%"
400.00,0.02189
401.00,0.02210
402.00,0.02280
403.00,0.02445
404.00,0.02393
405.00,0.02464
406.00,0.02652
407.00,0.02427
408.00,0.02417
409.00,0.02552
410.00,0.02771
411.00,0.02607
412.00,0.02466
413.00,0.02591
414.00,0.02580
415.00,0.02463
416.00,0.02476
417.00,0.02299
418.00,0.02312
419.00,0.02388
420.00,0.02414
421.00,0.02353
422.00,0.02431
423.00,0.02604
424.00,0.02712
425.00,0.03092
426.00,0.03697
427.00,0.04397
428.00,0.05501
429.00,0.07096
430.00,0.08614
431.00,0.10571
432.00,0.12852
433.00,0.14870
434.00,0.16132
435.00,0.17082
436.00,0.18036
437.00,0.18492
438.00,0.18966
439.00,0.19343
440.00,0.19724
441.00,0.20315
442.00,0.20548
443.00,0.21240
444.00,0.21348
445.00,0.21709
446.00,0.22411
447.00,0.22378
448.00,0.22973
449.00,0.23568
450.00,0.23491
451.00,0.23879
452.00,0.24449
453.00,0.24869
454.00,0.25170
455.00,0.25574
456.00,0.26085
457.00,0.26556
458.00,0.26987
459.00,0.27257
460.00,0.27730
461.00,0.28401
462.00,0.28694
463.00,0.29368
464.00,0.29796
465.00,0.30448
466.00,0.30806
467.00,0.31020
468.00,0.31638
469.00,0.32139
470.00,0.32244
471.00,0.33085
472.00,0.33750
473.00,0.33824
474.00,0.34392
475.00,0.35049
476.00,0.35575
477.00,0.35886
478.00,0.36511
479.00,0.36660
480.00,0.37264
481.00,0.37834
482.00,0.38589
483.00,0.38688
484.00,0.39304
485.00,0.40280
486.00,0.40689
487.00,0.41163
488.00,0.41712
489.00,0.42187
490.00,0.42398
491.00,0.43315
492.00,0.43798
493.00,0.44146
494.00,0.44911
495.00,0.45350
496.00,0.45995
497.00,0.46290
498.00,0.46867
499.00,0.47531
500.00,0.48460
501.00,0.48666
502.00,0.49119
503.00,0.49926
504.00,0.50571
505.00,0.51205
506.00,0.51279
507.00,0.52435
508.00,0.53142
509.00,0.52818
510.00,0.53654
511.00,0.54542
512.00,0.54913
513.00,0.55746
514.00,0.56241
515.00,0.56322
516.00,0.57767
517.00,0.57969
518.00,0.58125
519.00,0.58480
520.00,0.59187
521.00,0.60246
522.00,0.60389
523.00,0.61179
524.00,0.61436
525.00,0.61735
526.00,0.62461
527.00,0.62960
528.00,0.63092
529.00,0.63566
530.00,0.64696
531.00,0.64896
532.00,0.65331
533.00,0.65460
534.00,0.66007
535.00,0.66470
536.00,0.66060
537.00,0.67115
538.00,0.67288
539.00,0.67841
540.00,0.68061
541.00,0.68239
542.00,0.68847
543.00,0.68282
544.00,0.68710
545.00,0.69222
546.00,0.69649
547.00,0.69672
548.00,0.70156
549.00,0.69949
550.00,0.70674
551.00,0.70887
552.00,0.71096
553.00,0.70659
554.00,0.71638
555.00,0.71967
556.00,0.72157
557.00,0.72273
558.00,0.72921
559.00,0.73406
560.00,0.73314
561.00,0.73929
562.00,0.73988
563.00,0.74869
564.00,0.75182
565.00,0.75672
566.00,0.76151
567.00,0.76495
568.00,0.77483
569.00,0.77836
570.00,0.79342
571.00,0.80142
572.00,0.80232
573.00,0.81820
574.00,0.82533
575.00,0.83945
576.00,0.85221
577.00,0.86543
578.00,0.88162
579.00,0.89380
580.00,0.90894
581.00,0.93256
582.00,0.94569
583.00,0.96967
584.00,0.99500
585.00,1.01493
586.00,1.04411
587.00,1.06929
588.00,1.09536
589.00,1.13257
590.00,1.16960
591.00,1.20574
592.00,1.24927
593.00,1.29122
594.00,1.34302
595.00,1.38989
596.00,1.44892
597.00,1.50997
598.00,1.56517
599.00,1.64362
600.00,1.71051
601.00,1.78189
602.00,1.87051
603.00,1.95215
604.00,2.04794
605.00,2.15072
606.00,2.25652
607.00,2.37199
608.00,2.48380
609.00,2.61091
610.00,2.74853
611.00,2.88721
612.00,3.04803
613.00,3.20395
614.00,3.38254
615.00,3.55658
616.00,3.74371
617.00,3.94956
618.00,4.16176
619.00,4.40326
620.00,4.64886
621.00,4.89189
622.00,5.14975
623.00,5.41216
624.00,5.69806
625.00,5.98990
626.00,6.30774
627.00,6.61647
628.00,6.93987
629.00,7.25714
630.00,7.57986
631.00,7.95268
632.00,8.32059
633.00,8.68342
634.00,9.07069
635.00,9.48386
636.00,9.91476
637.00,10.31891
638.00,10.73377
639.00,11.21241
640.00,11.63426
641.00,12.11108
642.00,12.58624
643.00,13.03010
644.00,13.49989
645.00,13.95947
646.00,14.44741
647.00,14.92639
648.00,15.40521
649.00,15.92381
650.00,16.39231
651.00,16.92049
652.00,17.38832
653.00,17.88147
654.00,18.36577
655.00,18.87454
656.00,19.34256
657.00,19.76741
658.00,20.37462
659.00,20.83594
660.00,21.33033
661.00,21.84170
662.00,22.40257
663.00,22.86957
664.00,23.39258
665.00,23.87557
666.00,24.38713
667.00,24.89079
668.00,25.40626
669.00,25.83394
670.00,26.33394
671.00,26.73457
672.00,27.26141
673.00,27.69596
674.00,28.15599
675.00,28.59848
676.00,29.00230
677.00,29.46168
678.00,29.93120
679.00,30.35061
680.00,30.82586
681.00,31.18252
682.00,31.65533
683.00,32.08455
684.00,32.43414
685.00,32.80621
686.00,33.19179
687.00,33.59943
688.00,33.97492
689.00,34.25139
690.00,34.62752
691.00,34.88595
692.00,35.20373
693.00,35.54720
694.00,35.83644
695.00,36.10320
696.00,36.42602
697.00,36.53871
698.00,36.91032
699.00,37.04244
700.00,37.35410
701.00,37.50314
702.00,37.68207
703.00,37.89482
704.00,38.12906
705.00,38.31173
706.00,38.50966
707.00,38.75335
708.00,38.88344
709.00,38.94632
710.00,39.08459
711.00,39.32097
712.00,39.46676
713.00,39.63467
714.00,39.73447
715.00,39.89692
716.00,39.93885
717.00,40.03512
718.00,40.23701
719.00,40.37867
720.00,40.42344
721.00,40.56876
722.00,40.68509
723.00,40.81985
724.00,40.84761
725.00,41.11476
726.00,41.07590
727.00,41.19885
728.00,41.46249
729.00,41.43442
730.00,41.58993
731.00,41.80916
732.00,41.86949
733.00,41.91954
734.00,42.14262
735.00,42.16118
736.00,42.18277
737.00,42.33736
738.00,42.64283
739.00,42.62108
740.00,42.70200
741.00,42.69863
742.00,42.96493
743.00,43.08719
744.00,43.22617
745.00,43.33500
746.00,43.43874
747.00,43.53372
748.00,43.64175
749.00,43.73184
750.00,43.90007
751.00,44.01888
752.00,44.31078
753.00,44.34801
754.00,44.60728
755.00,44.58661
756.00,44.81845
757.00,44.85894
758.00,45.00963
759.00,45.22018
760.00,45.19427
761.00,45.36551
762.00,45.58686
763.00,45.55360
764.00,45.79948
765.00,45.93414
766.00,45.94892
767.00,46.33112
768.00,46.33721
769.00,46.33495
770.00,46.69768
771.00,46.76984
772.00,46.87352
773.00,46.75912
774.00,47.18443
775.00,47.10158
776.00,47.14271
777.00,47.36036
778.00,47.43726
779.00,47.47801
780.00,47.81234
781.00,47.74565
782.00,47.64589
783.00,48.21272
784.00,48.14377
785.00,48.13663
786.00,48.43694
787.00,48.23990
788.00,48.71253
789.00,48.51806
790.00,48.78457
791.00,48.63360
792.00,48.66343
793.00,48.94213
794.00,49.10176
795.00,49.14708
796.00,49.35389
797.00,49.46834
798.00,49.42281
799.00,49.47453
800.00,49.61143
801.00,49.50197
802.00,49.67006
803.00,49.78253
804.00,49.51395
805.00,50.09305
806.00,50.07001
807.00,49.87008
808.00,50.09985
809.00,50.20822
810.00,50.30445
811.00,50.35531
812.00,50.57570
813.00,50.43243
814.00,50.82286
815.00,50.76617
816.00,50.76357
817.00,50.91889
818.00,50.76960
819.00,50.91230
820.00,51.10304
821.00,50.77316
822.00,50.89945
823.00,51.34162
824.00,51.33458
825.00,51.13313
826.00,51.15045
827.00,51.72300
828.00,51.55500
829.00,51.67533
830.00,51.78009
831.00,51.55928
832.00,51.59470
833.00,51.77217
834.00,52.27439
835.00,51.95177
836.00,51.74161
837.00,51.45600
838.00,51.80449
839.00,51.89676
840.00,51.32910
841.00,52.31881
842.00,51.61407
843.00,51.38715
844.00,52.25109
845.00,51.41437
846.00,51.89127
847.00,53.16825
848.00,52.63926
849.00,51.16178
850.00,51.71060
851.00,51.83526
852.00,52.31431
853.00,51.98591
854.00,52.44786
855.00,52.10837
856.00,53.05994
857.00,52.13185
858.00,50.91019
859.00,52.51678
860.00,53.11855
861.00,50.20404
862.00,52.04762
863.00,52.45784
864.00,53.18321
865.00,50.02781
866.00,55.56894
867.00,50.36938
868.00,52.22094
869.00,50.95776
870.00,52.29442
871.00,55.16865
872.00,51.38304
873.00,52.43549
874.00,52.19988
875.00,52.69324
876.00,49.47459
877.00,52.49138
878.00,50.99152
879.00,47.62298
880.00,51.72067
881.00,53.62217
882.00,54.08982
883.00,50.29809
884.00,50.73270
885.00,49.35144
886.00,54.54142
887.00,54.91036
888.00,45.50062
889.00,49.34969
890.00,46.65934
891.00,51.50360
892.00,49.68429
893.00,47.17693
894.00,56.66870
895.00,48.71655
896.00,51.64313
897.00,50.37590
898.00,53.66896
899.00,47.32960
900.00,57.34596
