"X - RawData"
"Wavelength nm.","T%"
400.00,0.01607
401.00,0.01581
402.00,0.01634
403.00,0.01659
404.00,0.01809
405.00,0.01733
406.00,0.01742
407.00,0.01770
408.00,0.01822
409.00,0.01862
410.00,0.01910
411.00,0.01766
412.00,0.01917
413.00,0.01827
414.00,0.01906
415.00,0.01831
416.00,0.01830
417.00,0.01795
418.00,0.01724
419.00,0.01832
420.00,0.01815
421.00,0.01887
422.00,0.02048
423.00,0.01948
424.00,0.02240
425.00,0.02426
426.00,0.02715
427.00,0.02973
428.00,0.03359
429.00,0.03855
430.00,0.04253
431.00,0.04434
432.00,0.04707
433.00,0.05106
434.00,0.05341
435.00,0.05600
436.00,0.05726
437.00,0.06001
438.00,0.06031
439.00,0.06095
440.00,0.06365
441.00,0.06309
442.00,0.06494
443.00,0.06842
444.00,0.06782
445.00,0.06885
446.00,0.07078
447.00,0.07188
448.00,0.07305
449.00,0.07784
450.00,0.07739
451.00,0.07980
452.00,0.08093
453.00,0.08201
454.00,0.08353
455.00,0.08585
456.00,0.08782
457.00,0.08960
458.00,0.09152
459.00,0.09375
460.00,0.09528
461.00,0.09450
462.00,0.09682
463.00,0.10113
464.00,0.10296
465.00,0.10285
466.00,0.10689
467.00,0.10827
468.00,0.11017
469.00,0.11303
470.00,0.11453
471.00,0.11634
472.00,0.11862
473.00,0.12054
474.00,0.12278
475.00,0.12594
476.00,0.12703
477.00,0.12956
478.00,0.13426
479.00,0.13389
480.00,0.13759
481.00,0.13869
482.00,0.14134
483.00,0.14486
484.00,0.14663
485.00,0.14744
486.00,0.15216
487.00,0.15299
488.00,0.15660
489.00,0.15834
490.00,0.16076
491.00,0.16299
492.00,0.16663
493.00,0.16718
494.00,0.17062
495.00,0.17181
496.00,0.17677
497.00,0.17904
498.00,0.18268
499.00,0.18624
500.00,0.18650
501.00,0.18951
502.00,0.19160
503.00,0.19673
504.00,0.19712
505.00,0.20105
506.00,0.20543
507.00,0.20670
508.00,0.21018
509.00,0.21203
510.00,0.21686
511.00,0.21647
512.00,0.21864
513.00,0.22160
514.00,0.22555
515.00,0.23035
516.00,0.23272
517.00,0.23396
518.00,0.23703
519.00,0.23981
520.00,0.24479
521.00,0.24364
522.00,0.25146
523.00,0.25229
524.00,0.25255
525.00,0.25794
526.00,0.25727
527.00,0.25959
528.00,0.26166
529.00,0.26449
530.00,0.26744
531.00,0.27131
532.00,0.27499
533.00,0.27561
534.00,0.27707
535.00,0.27772
536.00,0.28462
537.00,0.28365
538.00,0.29025
539.00,0.28706
540.00,0.29012
541.00,0.29275
542.00,0.29780
543.00,0.29449
544.00,0.29923
545.00,0.29925
546.00,0.30244
547.00,0.30428
548.00,0.30823
549.00,0.30608
550.00,0.31003
551.00,0.31460
552.00,0.31722
553.00,0.31694
554.00,0.31650
555.00,0.31797
556.00,0.32297
557.00,0.32809
558.00,0.33126
559.00,0.33494
560.00,0.33564
561.00,0.34042
562.00,0.34139
563.00,0.34341
564.00,0.34918
565.00,0.35270
566.00,0.35826
567.00,0.36349
568.00,0.36866
569.00,0.37601
570.00,0.37976
571.00,0.38936
572.00,0.39264
573.00,0.40356
574.00,0.41315
575.00,0.42299
576.00,0.42685
577.00,0.43917
578.00,0.44813
579.00,0.45735
580.00,0.47553
581.00,0.48818
582.00,0.50239
583.00,0.51796
584.00,0.53554
585.00,0.55178
586.00,0.56860
587.00,0.59457
588.00,0.61285
589.00,0.63859
590.00,0.66373
591.00,0.69455
592.00,0.73070
593.00,0.75639
594.00,0.79362
595.00,0.83661
596.00,0.87670
597.00,0.91900
598.00,0.97275
599.00,1.02833
600.00,1.08971
601.00,1.14326
602.00,1.20647
603.00,1.28167
604.00,1.35334
605.00,1.43517
606.00,1.51814
607.00,1.62267
608.00,1.70801
609.00,1.82451
610.00,1.93289
611.00,2.05015
612.00,2.17681
613.00,2.30798
614.00,2.45959
615.00,2.61548
616.00,2.79350
617.00,2.96067
618.00,3.14301
619.00,3.35675
620.00,3.56739
621.00,3.80566
622.00,4.03166
623.00,4.27887
624.00,4.52493
625.00,4.79473
626.00,5.06003
627.00,5.35202
628.00,5.64356
629.00,5.96025
630.00,6.25762
631.00,6.61710
632.00,6.92656
633.00,7.30265
634.00,7.67292
635.00,8.04403
636.00,8.44776
637.00,8.85760
638.00,9.26607
639.00,9.70177
640.00,10.12694
641.00,10.58202
642.00,11.03359
643.00,11.49158
644.00,11.95273
645.00,12.40743
646.00,12.86935
647.00,13.33307
648.00,13.83415
649.00,14.28241
650.00,14.79091
651.00,15.26082
652.00,15.74116
653.00,16.16821
654.00,16.63482
655.00,17.12721
656.00,17.58510
657.00,18.05124
658.00,18.55688
659.00,18.99234
660.00,19.50967
661.00,19.92796
662.00,20.43954
663.00,20.90401
664.00,21.40198
665.00,21.86752
666.00,22.28805
667.00,22.75241
668.00,23.21244
669.00,23.63713
670.00,23.98435
671.00,24.42030
672.00,24.85799
673.00,25.25817
674.00,25.66735
675.00,26.06542
676.00,26.43520
677.00,26.80495
678.00,27.28530
679.00,27.63411
680.00,28.04929
681.00,28.43581
682.00,28.79551
683.00,29.17541
684.00,29.57555
685.00,29.86713
686.00,30.25737
687.00,30.63257
688.00,30.99190
689.00,31.27181
690.00,31.57689
691.00,31.87075
692.00,32.26154
693.00,32.56716
694.00,32.87923
695.00,33.16854
696.00,33.47721
697.00,33.77761
698.00,33.97449
699.00,34.21064
700.00,34.51678
701.00,34.75444
702.00,34.99824
703.00,35.22623
704.00,35.51176
705.00,35.76227
706.00,35.99404
707.00,36.13372
708.00,36.27613
709.00,36.61258
710.00,36.76462
711.00,36.97942
712.00,37.19969
713.00,37.34218
714.00,37.50352
715.00,37.73496
716.00,37.76473
717.00,37.94393
718.00,38.01600
719.00,38.29527
720.00,38.36064
721.00,38.51356
722.00,38.73423
723.00,38.69466
724.00,38.83548
725.00,39.00005
726.00,39.12718
727.00,39.22038
728.00,39.30470
729.00,39.40963
730.00,39.52298
731.00,39.57574
732.00,39.73957
733.00,39.62430
734.00,39.90428
735.00,39.81936
736.00,40.01083
737.00,39.94097
738.00,40.28957
739.00,40.27821
740.00,40.22239
741.00,40.30081
742.00,40.40733
743.00,40.42801
744.00,40.62989
745.00,40.54957
746.00,40.69090
747.00,40.67783
748.00,40.82247
749.00,40.83835
750.00,40.94294
751.00,40.82657
752.00,41.06410
753.00,41.20695
754.00,41.13890
755.00,41.08141
756.00,41.30947
757.00,41.18567
758.00,41.32448
759.00,41.50520
760.00,41.56155
761.00,41.61333
762.00,41.72633
763.00,41.61827
764.00,41.77149
765.00,41.77878
766.00,41.84386
767.00,41.95158
768.00,42.02332
769.00,42.03815
770.00,42.37446
771.00,42.37820
772.00,42.56238
773.00,42.26803
774.00,42.38644
775.00,42.44944
776.00,42.61036
777.00,42.52641
778.00,42.63290
779.00,42.82285
780.00,42.81785
781.00,43.05224
782.00,42.70781
783.00,42.99121
784.00,42.92888
785.00,43.06793
786.00,43.34345
787.00,43.30004
788.00,43.56304
789.00,43.38955
790.00,43.62070
791.00,43.48573
792.00,43.66397
793.00,43.60153
794.00,43.64583
795.00,43.86955
796.00,43.89651
797.00,43.91473
798.00,44.06182
799.00,44.04903
800.00,44.12819
801.00,44.12761
802.00,44.09053
803.00,44.23434
804.00,44.32538
805.00,44.38330
806.00,44.71664
807.00,44.47784
808.00,44.54625
809.00,44.55260
810.00,44.80888
811.00,44.95937
812.00,44.89871
813.00,44.70280
814.00,45.10951
815.00,45.17983
816.00,45.26940
817.00,45.15584
818.00,45.25856
819.00,45.25021
820.00,45.56587
821.00,45.31840
822.00,45.47279
823.00,45.70860
824.00,45.85441
825.00,45.74269
826.00,45.73177
827.00,46.23288
828.00,46.15263
829.00,46.23707
830.00,45.93590
831.00,46.60785
832.00,46.29742
833.00,46.70394
834.00,46.72480
835.00,46.42867
836.00,46.87301
837.00,46.54473
838.00,46.49233
839.00,46.73960
840.00,46.75411
841.00,46.60205
842.00,46.45870
843.00,46.51549
844.00,47.73708
845.00,47.00771
846.00,46.93996
847.00,47.42290
848.00,47.36497
849.00,47.52630
850.00,47.95803
851.00,48.03765
852.00,47.55076
853.00,47.45025
854.00,48.27962
855.00,48.62224
856.00,48.95155
857.00,47.99021
858.00,47.88858
859.00,48.56839
860.00,50.44467
861.00,46.32810
862.00,47.65213
863.00,49.20405
864.00,48.70945
865.00,49.06862
866.00,49.87719
867.00,49.76642
868.00,50.45676
869.00,49.55109
870.00,50.18216
871.00,50.77223
872.00,49.61651
873.00,51.23479
874.00,50.46645
875.00,48.58412
876.00,48.37219
877.00,52.33128
878.00,46.56883
879.00,47.53585
880.00,52.31894
881.00,53.05151
882.00,49.59054
883.00,49.17000
884.00,47.64492
885.00,46.33063
886.00,51.57151
887.00,49.56366
888.00,50.48695
889.00,45.83900
890.00,43.17299
891.00,54.36029
892.00,46.76766
893.00,44.33855
894.00,49.41379
895.00,50.61044
896.00,48.64241
897.00,54.91668
898.00,51.05490
899.00,49.90515
900.00,47.24854
