"II_EndDay - RawData"
"Wavelength nm.","T%"
400.00,0.01233
401.00,0.01250
402.00,0.01371
403.00,0.01275
404.00,0.01385
405.00,0.01383
406.00,0.01413
407.00,0.01461
408.00,0.01387
409.00,0.01407
410.00,0.01552
411.00,0.01337
412.00,0.01446
413.00,0.01410
414.00,0.01397
415.00,0.01408
416.00,0.01286
417.00,0.01151
418.00,0.01112
419.00,0.01040
420.00,0.01059
421.00,0.01120
422.00,0.01309
423.00,0.01381
424.00,0.01525
425.00,0.01933
426.00,0.02511
427.00,0.03437
428.00,0.04315
429.00,0.05635
430.00,0.06907
431.00,0.08780
432.00,0.10188
433.00,0.11215
434.00,0.12340
435.00,0.12848
436.00,0.13342
437.00,0.13959
438.00,0.14145
439.00,0.14463
440.00,0.14531
441.00,0.15073
442.00,0.15165
443.00,0.15495
444.00,0.15909
445.00,0.16164
446.00,0.16445
447.00,0.16802
448.00,0.16755
449.00,0.17425
450.00,0.17661
451.00,0.17784
452.00,0.18202
453.00,0.18524
454.00,0.18724
455.00,0.19113
456.00,0.19400
457.00,0.19664
458.00,0.20360
459.00,0.20138
460.00,0.20897
461.00,0.21279
462.00,0.21499
463.00,0.21926
464.00,0.22562
465.00,0.23155
466.00,0.23090
467.00,0.23369
468.00,0.24013
469.00,0.24054
470.00,0.24687
471.00,0.24982
472.00,0.25701
473.00,0.25852
474.00,0.26234
475.00,0.26633
476.00,0.27168
477.00,0.27571
478.00,0.27674
479.00,0.28228
480.00,0.28457
481.00,0.28859
482.00,0.29398
483.00,0.30037
484.00,0.30357
485.00,0.30838
486.00,0.31168
487.00,0.31468
488.00,0.32365
489.00,0.32687
490.00,0.33191
491.00,0.33308
492.00,0.33935
493.00,0.34445
494.00,0.34810
495.00,0.35272
496.00,0.35995
497.00,0.36413
498.00,0.36662
499.00,0.37032
500.00,0.37539
501.00,0.37901
502.00,0.38417
503.00,0.38986
504.00,0.39534
505.00,0.40124
506.00,0.40491
507.00,0.40865
508.00,0.41256
509.00,0.42173
510.00,0.42700
511.00,0.42822
512.00,0.43344
513.00,0.44383
514.00,0.44537
515.00,0.44652
516.00,0.45190
517.00,0.45648
518.00,0.46226
519.00,0.46795
520.00,0.47023
521.00,0.47344
522.00,0.48027
523.00,0.48040
524.00,0.48344
525.00,0.48888
526.00,0.49266
527.00,0.49960
528.00,0.49943
529.00,0.50913
530.00,0.51049
531.00,0.51014
532.00,0.51334
533.00,0.52050
534.00,0.52173
535.00,0.52077
536.00,0.52440
537.00,0.52899
538.00,0.53379
539.00,0.53759
540.00,0.53323
541.00,0.54160
542.00,0.54275
543.00,0.54376
544.00,0.54821
545.00,0.54794
546.00,0.55160
547.00,0.55203
548.00,0.55543
549.00,0.55860
550.00,0.55912
551.00,0.56089
552.00,0.56724
553.00,0.56753
554.00,0.56829
555.00,0.57263
556.00,0.57466
557.00,0.57754
558.00,0.57780
559.00,0.58182
560.00,0.58739
561.00,0.58994
562.00,0.59711
563.00,0.59863
564.00,0.59960
565.00,0.60698
566.00,0.61396
567.00,0.62063
568.00,0.62598
569.00,0.63014
570.00,0.63439
571.00,0.64508
572.00,0.65795
573.00,0.66318
574.00,0.67443
575.00,0.68625
576.00,0.69607
577.00,0.70894
578.00,0.72093
579.00,0.73974
580.00,0.75169
581.00,0.77118
582.00,0.78950
583.00,0.80923
584.00,0.82925
585.00,0.85500
586.00,0.87864
587.00,0.90153
588.00,0.93851
589.00,0.96551
590.00,1.00598
591.00,1.03556
592.00,1.07922
593.00,1.12018
594.00,1.17271
595.00,1.21739
596.00,1.27392
597.00,1.33183
598.00,1.39480
599.00,1.46900
600.00,1.53282
601.00,1.61324
602.00,1.68965
603.00,1.77668
604.00,1.87264
605.00,1.97633
606.00,2.07917
607.00,2.19160
608.00,2.31496
609.00,2.45472
610.00,2.57576
611.00,2.73551
612.00,2.88506
613.00,3.05244
614.00,3.22559
615.00,3.41050
616.00,3.59554
617.00,3.81770
618.00,4.04035
619.00,4.27923
620.00,4.52741
621.00,4.78382
622.00,5.04435
623.00,5.34143
624.00,5.62196
625.00,5.92942
626.00,6.23366
627.00,6.55743
628.00,6.88632
629.00,7.21940
630.00,7.57018
631.00,7.94782
632.00,8.32191
633.00,8.71142
634.00,9.10859
635.00,9.50618
636.00,9.94105
637.00,10.37830
638.00,10.82441
639.00,11.28800
640.00,11.75915
641.00,12.21453
642.00,12.69677
643.00,13.17239
644.00,13.61890
645.00,14.12794
646.00,14.62982
647.00,15.13231
648.00,15.57497
649.00,16.06802
650.00,16.57523
651.00,17.08386
652.00,17.57165
653.00,18.08244
654.00,18.53820
655.00,19.03681
656.00,19.48065
657.00,20.01976
658.00,20.49120
659.00,21.00307
660.00,21.49967
661.00,21.99061
662.00,22.48240
663.00,23.01347
664.00,23.46167
665.00,23.99556
666.00,24.44707
667.00,24.90897
668.00,25.43317
669.00,25.93898
670.00,26.38077
671.00,26.83360
672.00,27.30816
673.00,27.75147
674.00,28.17724
675.00,28.62529
676.00,29.13851
677.00,29.54401
678.00,29.98778
679.00,30.45900
680.00,30.90443
681.00,31.34789
682.00,31.73837
683.00,32.18750
684.00,32.57788
685.00,33.05695
686.00,33.39735
687.00,33.84064
688.00,34.14693
689.00,34.59485
690.00,34.84614
691.00,35.27062
692.00,35.62414
693.00,35.93460
694.00,36.33014
695.00,36.59044
696.00,36.99063
697.00,37.18857
698.00,37.53620
699.00,37.80257
700.00,37.96470
701.00,38.27446
702.00,38.51174
703.00,38.82754
704.00,39.06189
705.00,39.26265
706.00,39.52779
707.00,39.67709
708.00,39.75589
709.00,40.04372
710.00,40.29405
711.00,40.40979
712.00,40.58753
713.00,40.68866
714.00,40.82676
715.00,40.95493
716.00,41.16654
717.00,41.25510
718.00,41.36035
719.00,41.47512
720.00,41.47597
721.00,41.67331
722.00,41.75596
723.00,42.02996
724.00,41.88310
725.00,42.01363
726.00,42.17446
727.00,42.19145
728.00,42.37047
729.00,42.33893
730.00,42.55322
731.00,42.63749
732.00,42.55182
733.00,42.81815
734.00,42.85822
735.00,42.96458
736.00,42.84376
737.00,43.03090
738.00,43.13552
739.00,43.17708
740.00,43.32879
741.00,43.36058
742.00,43.39246
743.00,43.35395
744.00,43.56252
745.00,43.49942
746.00,43.63745
747.00,43.68647
748.00,43.82027
749.00,43.91297
750.00,43.95898
751.00,44.10792
752.00,44.29840
753.00,44.18470
754.00,44.30436
755.00,44.44332
756.00,44.44630
757.00,44.54523
758.00,44.69349
759.00,44.85208
760.00,44.87351
761.00,45.25092
762.00,45.16270
763.00,44.97632
764.00,45.36685
765.00,45.20379
766.00,45.39710
767.00,45.36434
768.00,45.71915
769.00,45.70256
770.00,45.76075
771.00,45.90074
772.00,45.97510
773.00,46.09057
774.00,46.12957
775.00,46.19848
776.00,46.07642
777.00,46.40965
778.00,46.40124
779.00,46.63287
780.00,46.71000
781.00,46.49609
782.00,46.73937
783.00,46.71215
784.00,46.63768
785.00,46.85718
786.00,47.08213
787.00,47.19499
788.00,47.34272
789.00,47.20505
790.00,47.33961
791.00,47.54412
792.00,47.57767
793.00,47.42451
794.00,47.51583
795.00,47.60381
796.00,47.71584
797.00,47.61733
798.00,47.63527
799.00,47.84819
800.00,47.80577
801.00,48.18673
802.00,48.08954
803.00,48.09405
804.00,48.05976
805.00,48.43468
806.00,48.12122
807.00,48.57048
808.00,48.47521
809.00,48.55621
810.00,48.47630
811.00,48.49795
812.00,48.43946
813.00,48.41921
814.00,48.50746
815.00,48.69397
816.00,48.75370
817.00,48.91866
818.00,48.87780
819.00,49.04482
820.00,48.99662
821.00,49.25842
822.00,48.75363
823.00,48.91948
824.00,49.41187
825.00,49.30002
826.00,49.49656
827.00,49.60917
828.00,49.28378
829.00,49.54869
830.00,49.59280
831.00,49.72146
832.00,49.78683
833.00,49.77595
834.00,49.97652
835.00,50.25685
836.00,49.58918
837.00,49.63379
838.00,50.16235
839.00,49.33022
840.00,50.38289
841.00,50.15597
842.00,50.23257
843.00,50.03561
844.00,50.13541
845.00,50.19631
846.00,50.94536
847.00,50.57529
848.00,50.52111
849.00,50.45781
850.00,50.38714
851.00,50.74822
852.00,51.22277
853.00,50.61212
854.00,50.64089
855.00,50.42059
856.00,50.33557
857.00,51.22474
858.00,50.56466
859.00,50.58494
860.00,51.08304
861.00,51.77397
862.00,50.57064
863.00,49.97981
864.00,49.71871
865.00,50.34957
866.00,52.25691
867.00,47.96934
868.00,53.99694
869.00,49.13833
870.00,52.08553
871.00,51.45396
872.00,53.70069
873.00,48.27566
874.00,51.81234
875.00,49.16955
876.00,49.01985
877.00,47.93125
878.00,52.49354
879.00,57.37433
880.00,52.31774
881.00,52.26617
882.00,49.40833
883.00,50.60468
884.00,51.82875
885.00,49.68687
886.00,50.37502
887.00,50.95934
888.00,51.14704
889.00,45.76063
890.00,51.55368
891.00,46.05520
892.00,47.43418
893.00,51.54462
894.00,45.85498
895.00,55.04348
896.00,49.24879
897.00,49.13936
898.00,45.18238
899.00,45.63040
900.00,46.14473
