"Ag2BiI5_Old_B2 - RawData"
"Wavelength nm.","T%"
400.00,0.07912
401.00,0.07916
402.00,0.07978
403.00,0.07998
404.00,0.08299
405.00,0.08458
406.00,0.08238
407.00,0.08575
408.00,0.08461
409.00,0.08352
410.00,0.08564
411.00,0.08775
412.00,0.08470
413.00,0.08730
414.00,0.08621
415.00,0.08630
416.00,0.08378
417.00,0.08687
418.00,0.08272
419.00,0.08394
420.00,0.08259
421.00,0.08261
422.00,0.08181
423.00,0.08281
424.00,0.08527
425.00,0.08951
426.00,0.09732
427.00,0.10621
428.00,0.11857
429.00,0.13504
430.00,0.15340
431.00,0.16646
432.00,0.17888
433.00,0.19067
434.00,0.20530
435.00,0.21013
436.00,0.21565
437.00,0.22217
438.00,0.22779
439.00,0.22980
440.00,0.23344
441.00,0.23911
442.00,0.24747
443.00,0.24763
444.00,0.24977
445.00,0.25678
446.00,0.25931
447.00,0.26490
448.00,0.27035
449.00,0.27387
450.00,0.27850
451.00,0.28186
452.00,0.28902
453.00,0.29405
454.00,0.29905
455.00,0.30309
456.00,0.30914
457.00,0.31569
458.00,0.32067
459.00,0.32295
460.00,0.32840
461.00,0.33417
462.00,0.33949
463.00,0.34258
464.00,0.34964
465.00,0.35575
466.00,0.35644
467.00,0.36386
468.00,0.37129
469.00,0.37364
470.00,0.37599
471.00,0.38580
472.00,0.39231
473.00,0.39089
474.00,0.39961
475.00,0.40368
476.00,0.40799
477.00,0.41558
478.00,0.41968
479.00,0.42539
480.00,0.42853
481.00,0.43401
482.00,0.43783
483.00,0.44366
484.00,0.44687
485.00,0.45097
486.00,0.46019
487.00,0.46358
488.00,0.46749
489.00,0.47522
490.00,0.47739
491.00,0.48159
492.00,0.48720
493.00,0.49905
494.00,0.49968
495.00,0.50685
496.00,0.51132
497.00,0.51403
498.00,0.52257
499.00,0.53256
500.00,0.53255
501.00,0.54346
502.00,0.54604
503.00,0.55034
504.00,0.56019
505.00,0.56630
506.00,0.56940
507.00,0.57604
508.00,0.58650
509.00,0.58917
510.00,0.59526
511.00,0.60385
512.00,0.61426
513.00,0.61560
514.00,0.62408
515.00,0.63000
516.00,0.63692
517.00,0.64723
518.00,0.64993
519.00,0.65308
520.00,0.65977
521.00,0.66656
522.00,0.67335
523.00,0.68500
524.00,0.68706
525.00,0.69140
526.00,0.70131
527.00,0.70746
528.00,0.70532
529.00,0.71544
530.00,0.72216
531.00,0.72899
532.00,0.73246
533.00,0.74412
534.00,0.74211
535.00,0.74956
536.00,0.75544
537.00,0.76404
538.00,0.76525
539.00,0.77176
540.00,0.77410
541.00,0.77832
542.00,0.78134
543.00,0.79132
544.00,0.78984
545.00,0.79049
546.00,0.80157
547.00,0.80764
548.00,0.80700
549.00,0.81407
550.00,0.81359
551.00,0.81892
552.00,0.81905
553.00,0.82967
554.00,0.83007
555.00,0.84192
556.00,0.84376
557.00,0.84512
558.00,0.84913
559.00,0.85593
560.00,0.86234
561.00,0.86897
562.00,0.87531
563.00,0.87824
564.00,0.88937
565.00,0.89849
566.00,0.90652
567.00,0.91497
568.00,0.92031
569.00,0.93540
570.00,0.94539
571.00,0.96060
572.00,0.96949
573.00,0.98756
574.00,1.00362
575.00,1.01835
576.00,1.03568
577.00,1.06006
578.00,1.07634
579.00,1.10043
580.00,1.12921
581.00,1.15168
582.00,1.18406
583.00,1.21314
584.00,1.24443
585.00,1.27504
586.00,1.31199
587.00,1.35334
588.00,1.39316
589.00,1.43370
590.00,1.48379
591.00,1.53810
592.00,1.59443
593.00,1.65771
594.00,1.72325
595.00,1.79540
596.00,1.86741
597.00,1.95349
598.00,2.04367
599.00,2.13095
600.00,2.23242
601.00,2.33857
602.00,2.44344
603.00,2.57905
604.00,2.69817
605.00,2.82799
606.00,2.97373
607.00,3.13347
608.00,3.29253
609.00,3.44958
610.00,3.62742
611.00,3.82601
612.00,4.01346
613.00,4.23694
614.00,4.46598
615.00,4.67152
616.00,4.95953
617.00,5.21482
618.00,5.49493
619.00,5.78745
620.00,6.11007
621.00,6.43543
622.00,6.73848
623.00,7.08481
624.00,7.42958
625.00,7.81245
626.00,8.19428
627.00,8.58638
628.00,8.97048
629.00,9.37698
630.00,9.79278
631.00,10.22214
632.00,10.66590
633.00,11.11996
634.00,11.61203
635.00,12.09417
636.00,12.58965
637.00,13.08649
638.00,13.56974
639.00,14.13000
640.00,14.64256
641.00,15.18983
642.00,15.72017
643.00,16.24742
644.00,16.80881
645.00,17.34183
646.00,17.86005
647.00,18.43068
648.00,18.96081
649.00,19.50362
650.00,20.02026
651.00,20.53794
652.00,21.08046
653.00,21.65825
654.00,22.10169
655.00,22.66906
656.00,23.20237
657.00,23.71168
658.00,24.30425
659.00,24.77615
660.00,25.27316
661.00,25.77596
662.00,26.29892
663.00,26.83488
664.00,27.32196
665.00,27.83304
666.00,28.25888
667.00,28.81245
668.00,29.35149
669.00,29.80699
670.00,30.20463
671.00,30.70935
672.00,31.12525
673.00,31.57855
674.00,32.03239
675.00,32.53520
676.00,32.98539
677.00,33.36509
678.00,33.76086
679.00,34.22779
680.00,34.69347
681.00,35.16406
682.00,35.59586
683.00,35.96225
684.00,36.50287
685.00,36.90697
686.00,37.20125
687.00,37.63887
688.00,37.98203
689.00,38.43302
690.00,38.75654
691.00,39.16628
692.00,39.52757
693.00,39.87372
694.00,40.14815
695.00,40.56058
696.00,40.84350
697.00,41.13859
698.00,41.39259
699.00,41.74505
700.00,42.02353
701.00,42.36907
702.00,42.55486
703.00,42.83097
704.00,43.07533
705.00,43.40188
706.00,43.66802
707.00,43.87446
708.00,44.00290
709.00,44.10064
710.00,44.47749
711.00,44.76129
712.00,44.90783
713.00,44.91374
714.00,45.13520
715.00,45.37990
716.00,45.48180
717.00,45.59761
718.00,45.61070
719.00,45.99046
720.00,46.18360
721.00,45.88599
722.00,46.15968
723.00,46.17248
724.00,46.38994
725.00,46.43310
726.00,46.44350
727.00,46.63229
728.00,46.64756
729.00,46.69411
730.00,46.72523
731.00,46.92553
732.00,46.74922
733.00,47.03704
734.00,47.07045
735.00,46.79559
736.00,46.91273
737.00,47.12113
738.00,47.04511
739.00,47.08213
740.00,47.12670
741.00,46.91904
742.00,47.00291
743.00,46.98190
744.00,47.03617
745.00,47.09063
746.00,47.07407
747.00,47.00740
748.00,47.15707
749.00,46.84826
750.00,46.97813
751.00,47.03020
752.00,47.15582
753.00,47.15666
754.00,46.96980
755.00,47.15365
756.00,47.09024
757.00,47.07994
758.00,47.17818
759.00,47.31748
760.00,47.16658
761.00,47.42338
762.00,47.34010
763.00,47.41614
764.00,47.55054
765.00,47.34699
766.00,47.25345
767.00,47.48628
768.00,47.37319
769.00,47.44021
770.00,47.51659
771.00,47.37372
772.00,47.56036
773.00,47.45515
774.00,47.55963
775.00,47.61101
776.00,47.93051
777.00,47.93756
778.00,48.02493
779.00,48.34292
780.00,48.01561
781.00,47.94594
782.00,47.95851
783.00,48.34444
784.00,48.41565
785.00,48.48619
786.00,48.47969
787.00,48.63693
788.00,48.75961
789.00,48.77823
790.00,48.79662
791.00,48.75403
792.00,48.83713
793.00,49.02677
794.00,49.00493
795.00,49.25258
796.00,49.14933
797.00,49.61251
798.00,49.60288
799.00,49.73742
800.00,49.71222
801.00,50.05963
802.00,50.10653
803.00,50.29119
804.00,49.99186
805.00,50.09504
806.00,50.51937
807.00,50.41717
808.00,50.67641
809.00,50.92371
810.00,51.26759
811.00,51.03729
812.00,51.37517
813.00,51.12761
814.00,51.24139
815.00,51.35945
816.00,51.48883
817.00,51.57815
818.00,51.72618
819.00,51.89860
820.00,52.26583
821.00,52.21359
822.00,52.05655
823.00,52.53456
824.00,52.29725
825.00,52.44349
826.00,52.79734
827.00,52.74926
828.00,52.88029
829.00,53.06458
830.00,53.18184
831.00,53.19270
832.00,53.63023
833.00,52.85470
834.00,53.85296
835.00,53.57271
836.00,53.76574
837.00,54.16190
838.00,54.15649
839.00,54.42229
840.00,54.24201
841.00,54.22854
842.00,54.09200
843.00,54.96769
844.00,54.78302
845.00,54.33505
846.00,55.52684
847.00,54.45102
848.00,55.51779
849.00,55.06957
850.00,54.61839
851.00,56.49693
852.00,56.03441
853.00,53.38039
854.00,55.59180
855.00,56.36888
856.00,56.32480
857.00,57.44093
858.00,54.68329
859.00,55.51015
860.00,54.69735
861.00,56.74720
862.00,56.55565
863.00,55.26845
864.00,56.73390
865.00,58.06581
866.00,56.17902
867.00,57.41731
868.00,58.13240
869.00,56.48065
870.00,57.96028
871.00,55.45788
872.00,56.87395
873.00,55.58496
874.00,59.64906
875.00,56.92549
876.00,54.12165
877.00,59.10894
878.00,55.09568
879.00,55.85202
880.00,57.38212
881.00,51.28792
882.00,57.05408
883.00,57.86355
884.00,55.45795
885.00,55.91026
886.00,60.95905
887.00,50.82878
888.00,52.63516
889.00,59.54618
890.00,52.58290
891.00,54.29432
892.00,54.60640
893.00,48.15266
894.00,61.18512
895.00,56.68021
896.00,59.71585
897.00,53.65545
898.00,64.63290
899.00,58.81764
900.00,58.49619
