"SR_1115 - RawData"
"Wavelength nm.","R%"
400.00,18.94052
401.00,18.98034
402.00,19.00349
403.00,19.03672
404.00,19.06083
405.00,19.06322
406.00,19.10054
407.00,19.14633
408.00,19.13063
409.00,19.17042
410.00,19.20351
411.00,19.24083
412.00,19.29671
413.00,19.29333
414.00,19.30791
415.00,19.35371
416.00,19.36594
417.00,19.44073
418.00,19.47955
419.00,19.53114
420.00,19.57624
421.00,19.60325
422.00,19.62979
423.00,19.67366
424.00,19.67183
425.00,19.70369
426.00,19.75724
427.00,19.73094
428.00,19.75597
429.00,19.79031
430.00,19.78586
431.00,19.81141
432.00,19.85000
433.00,19.86551
434.00,19.86012
435.00,19.88790
436.00,19.91349
437.00,19.90200
438.00,19.96331
439.00,19.97215
440.00,20.00155
441.00,20.03165
442.00,20.06200
443.00,20.05286
444.00,20.05532
445.00,20.11586
446.00,20.09912
447.00,20.13304
448.00,20.12739
449.00,20.12600
450.00,20.19454
451.00,20.19864
452.00,20.16837
453.00,20.25337
454.00,20.23816
455.00,20.29144
456.00,20.28853
457.00,20.31098
458.00,20.34095
459.00,20.37318
460.00,20.41202
461.00,20.42320
462.00,20.43800
463.00,20.46135
464.00,20.49257
465.00,20.50815
466.00,20.53837
467.00,20.52970
468.00,20.56081
469.00,20.59226
470.00,20.60434
471.00,20.60431
472.00,20.65519
473.00,20.64676
474.00,20.69757
475.00,20.70472
476.00,20.71927
477.00,20.75585
478.00,20.80749
479.00,20.81539
480.00,20.80385
481.00,20.87531
482.00,20.87735
483.00,20.91765
484.00,20.94493
485.00,20.97809
486.00,21.02084
487.00,21.03933
488.00,21.07943
489.00,21.11377
490.00,21.15618
491.00,21.15669
492.00,21.20706
493.00,21.23111
494.00,21.26421
495.00,21.29910
496.00,21.33475
497.00,21.36968
498.00,21.41284
499.00,21.43195
500.00,21.46902
501.00,21.50674
502.00,21.56878
503.00,21.60728
504.00,21.66719
505.00,21.69459
506.00,21.72535
507.00,21.76972
508.00,21.82802
509.00,21.85425
510.00,21.93267
511.00,21.99887
512.00,22.02936
513.00,22.09361
514.00,22.14926
515.00,22.20136
516.00,22.22816
517.00,22.31750
518.00,22.35935
519.00,22.46610
520.00,22.51378
521.00,22.57669
522.00,22.65796
523.00,22.69740
524.00,22.78250
525.00,22.86134
526.00,22.90466
527.00,22.99036
528.00,23.08254
529.00,23.15276
530.00,23.25599
531.00,23.31175
532.00,23.38297
533.00,23.52492
534.00,23.60481
535.00,23.72246
536.00,23.78699
537.00,23.83972
538.00,23.98031
539.00,24.04919
540.00,24.19339
541.00,24.29410
542.00,24.39593
543.00,24.52178
544.00,24.59690
545.00,24.72747
546.00,24.86311
547.00,24.98585
548.00,25.13020
549.00,25.21169
550.00,25.35498
551.00,25.47977
552.00,25.61893
553.00,25.75242
554.00,25.90141
555.00,26.01481
556.00,26.20403
557.00,26.28056
558.00,26.42925
559.00,26.61747
560.00,26.72078
561.00,26.83886
562.00,27.01620
563.00,27.17369
564.00,27.29835
565.00,27.44881
566.00,27.55859
567.00,27.72641
568.00,27.84361
569.00,27.92821
570.00,28.10332
571.00,28.21071
572.00,28.33015
573.00,28.46644
574.00,28.55861
575.00,28.71167
576.00,28.79337
577.00,28.92105
578.00,29.02149
579.00,29.11240
580.00,29.18330
581.00,29.30440
582.00,29.34565
583.00,29.42480
584.00,29.53482
585.00,29.54490
586.00,29.64357
587.00,29.69857
588.00,29.73462
589.00,29.79987
590.00,29.85454
591.00,29.87068
592.00,29.91048
593.00,29.93221
594.00,29.96500
595.00,29.95165
596.00,29.99825
597.00,30.01167
598.00,29.99388
599.00,30.00415
600.00,30.01760
601.00,30.00504
602.00,30.01659
603.00,30.00146
604.00,29.96933
605.00,29.99558
606.00,29.97782
607.00,29.95816
608.00,29.91223
609.00,29.88870
610.00,29.92558
611.00,29.92502
612.00,29.90699
613.00,29.92080
614.00,29.90940
615.00,29.88720
616.00,29.96434
617.00,29.91481
618.00,29.95409
619.00,29.98459
620.00,30.04680
621.00,30.07371
622.00,30.16560
623.00,30.19823
624.00,30.23628
625.00,30.34354
626.00,30.43187
627.00,30.54226
628.00,30.61393
629.00,30.71277
630.00,30.87800
631.00,30.94923
632.00,31.14091
633.00,31.31575
634.00,31.44106
635.00,31.57864
636.00,31.82804
637.00,31.98214
638.00,32.13938
639.00,32.35602
640.00,32.58077
641.00,32.81910
642.00,33.02215
643.00,33.22280
644.00,33.48228
645.00,33.67360
646.00,33.97942
647.00,34.23635
648.00,34.45133
649.00,34.73505
650.00,34.97640
651.00,35.22841
652.00,35.45733
653.00,35.70164
654.00,35.95285
655.00,36.23978
656.00,36.51603
657.00,36.76533
658.00,36.99396
659.00,37.25582
660.00,37.46845
661.00,37.72828
662.00,37.99421
663.00,38.21880
664.00,38.46826
665.00,38.70661
666.00,38.87255
667.00,39.12077
668.00,39.34083
669.00,39.53587
670.00,39.77688
671.00,39.88773
672.00,40.09792
673.00,40.29000
674.00,40.49034
675.00,40.58353
676.00,40.80963
677.00,40.85491
678.00,41.02854
679.00,41.17309
680.00,41.33156
681.00,41.45657
682.00,41.66614
683.00,41.72763
684.00,41.82951
685.00,41.97248
686.00,42.00806
687.00,42.15477
688.00,42.20902
689.00,42.26642
690.00,42.26572
691.00,42.48087
692.00,42.56013
693.00,42.52846
694.00,42.65553
695.00,42.75447
696.00,42.75008
697.00,42.72833
698.00,42.79852
699.00,42.91623
700.00,42.96553
701.00,43.02889
702.00,43.10868
703.00,43.12596
704.00,43.23148
705.00,43.19450
706.00,43.26152
707.00,43.23997
708.00,43.36939
709.00,43.42291
710.00,43.33626
711.00,43.49386
712.00,43.56098
713.00,43.55979
714.00,43.69312
715.00,43.67957
716.00,43.69776
717.00,43.78076
718.00,43.91978
719.00,43.83107
720.00,43.98418
721.00,43.91111
722.00,44.05782
723.00,44.04162
724.00,44.09283
725.00,44.24791
726.00,44.21586
727.00,44.26918
728.00,44.41003
729.00,44.41113
730.00,44.42227
731.00,44.50592
732.00,44.48234
733.00,44.70521
734.00,44.54895
735.00,44.81488
736.00,44.69539
737.00,44.91006
738.00,44.73832
739.00,44.83885
740.00,44.87019
741.00,44.91548
742.00,44.96583
743.00,44.97418
744.00,45.09767
745.00,45.11848
746.00,45.01068
747.00,45.26569
748.00,45.19532
749.00,45.19017
750.00,45.17380
751.00,45.36459
752.00,45.26516
753.00,45.25790
754.00,45.20663
755.00,45.28598
756.00,45.28769
757.00,45.61947
758.00,45.34177
759.00,45.45974
760.00,45.54075
761.00,45.41926
762.00,45.46450
763.00,45.45517
764.00,45.46683
765.00,45.56868
766.00,45.61545
767.00,45.55821
768.00,45.47740
769.00,45.45247
770.00,45.54464
771.00,45.48976
772.00,45.48503
773.00,45.44326
774.00,45.57850
775.00,45.57006
776.00,45.60120
777.00,45.63909
778.00,45.59007
779.00,45.58682
780.00,45.49927
781.00,45.56594
782.00,45.60159
783.00,45.59011
784.00,45.63443
785.00,45.50000
786.00,45.50188
787.00,45.74093
788.00,45.71406
789.00,45.75861
790.00,45.65972
791.00,45.85666
792.00,45.68492
793.00,45.80599
794.00,45.97093
795.00,45.56647
796.00,45.88301
797.00,45.87239
798.00,45.98237
799.00,45.97522
800.00,45.98706
801.00,46.17642
802.00,45.93772
803.00,45.98886
804.00,46.08490
805.00,46.22870
806.00,46.25785
807.00,46.22250
808.00,46.26337
809.00,46.41005
810.00,46.38489
811.00,46.54270
812.00,46.49492
813.00,46.53599
814.00,46.50708
815.00,46.58582
816.00,46.84270
817.00,46.70752
818.00,46.63757
819.00,46.78134
820.00,46.75546
821.00,46.87005
822.00,46.99467
823.00,47.13081
824.00,47.01279
825.00,47.09761
826.00,47.14937
827.00,47.46733
828.00,47.11905
829.00,47.26571
830.00,47.36854
831.00,47.15783
832.00,47.43553
833.00,47.33267
834.00,47.49281
835.00,47.40539
836.00,47.14117
837.00,47.78316
838.00,47.50451
839.00,47.74348
840.00,47.41289
841.00,47.79062
842.00,47.28941
843.00,47.68463
844.00,47.71047
845.00,47.20469
846.00,47.60085
847.00,47.15611
848.00,46.86134
849.00,47.36698
850.00,48.69897
851.00,46.40881
852.00,46.74919
853.00,46.64447
854.00,46.55052
855.00,46.62515
856.00,46.07834
857.00,46.79974
858.00,46.43426
859.00,45.04329
860.00,46.73768
861.00,46.70876
862.00,46.83758
863.00,44.46982
864.00,43.53685
865.00,43.93400
866.00,45.90488
867.00,44.59964
868.00,47.67200
869.00,44.44293
870.00,47.42156
871.00,45.81838
872.00,43.47773
873.00,47.58545
874.00,45.31084
875.00,42.15421
876.00,45.07671
877.00,44.93250
878.00,42.41476
879.00,42.89426
880.00,42.67624
881.00,48.33614
882.00,40.84229
883.00,41.94507
884.00,41.52769
885.00,45.13155
886.00,43.61269
887.00,42.00387
888.00,43.44961
889.00,41.34446
890.00,46.08236
891.00,39.09779
892.00,42.69913
893.00,43.35430
894.00,41.86135
895.00,46.20198
896.00,45.79717
897.00,39.90308
898.00,40.06033
899.00,42.58493
900.00,41.85677
