"Ag2BiI5_New - RawData"
"Wavelength nm.","T%"
400.00,0.01214
401.00,0.01277
402.00,0.01403
403.00,0.01456
404.00,0.01412
405.00,0.01450
406.00,0.01503
407.00,0.01368
408.00,0.01538
409.00,0.01541
410.00,0.01544
411.00,0.01497
412.00,0.01573
413.00,0.01642
414.00,0.01509
415.00,0.01524
416.00,0.01481
417.00,0.01392
418.00,0.01346
419.00,0.01381
420.00,0.01276
421.00,0.01239
422.00,0.01270
423.00,0.01319
424.00,0.01399
425.00,0.01608
426.00,0.02020
427.00,0.02511
428.00,0.03360
429.00,0.04696
430.00,0.06171
431.00,0.08173
432.00,0.10689
433.00,0.12892
434.00,0.14792
435.00,0.16114
436.00,0.16703
437.00,0.17871
438.00,0.17779
439.00,0.18175
440.00,0.18551
441.00,0.18935
442.00,0.19041
443.00,0.19364
444.00,0.19516
445.00,0.19737
446.00,0.20271
447.00,0.20456
448.00,0.20607
449.00,0.20854
450.00,0.20831
451.00,0.21198
452.00,0.21586
453.00,0.21469
454.00,0.21972
455.00,0.22267
456.00,0.22504
457.00,0.22863
458.00,0.23393
459.00,0.23460
460.00,0.23940
461.00,0.24113
462.00,0.24439
463.00,0.24677
464.00,0.24762
465.00,0.25503
466.00,0.25732
467.00,0.25722
468.00,0.26378
469.00,0.26567
470.00,0.26705
471.00,0.26995
472.00,0.27399
473.00,0.27690
474.00,0.28072
475.00,0.28325
476.00,0.28643
477.00,0.29551
478.00,0.29556
479.00,0.29847
480.00,0.30447
481.00,0.30539
482.00,0.30819
483.00,0.31366
484.00,0.32010
485.00,0.32203
486.00,0.32667
487.00,0.33352
488.00,0.33342
489.00,0.33783
490.00,0.33955
491.00,0.34650
492.00,0.34966
493.00,0.35482
494.00,0.35564
495.00,0.36024
496.00,0.36510
497.00,0.37204
498.00,0.37380
499.00,0.38116
500.00,0.38062
501.00,0.38515
502.00,0.39416
503.00,0.39660
504.00,0.40037
505.00,0.40801
506.00,0.40842
507.00,0.41535
508.00,0.41967
509.00,0.42157
510.00,0.42741
511.00,0.43555
512.00,0.43693
513.00,0.44203
514.00,0.44620
515.00,0.44992
516.00,0.45179
517.00,0.45778
518.00,0.46477
519.00,0.46831
520.00,0.46862
521.00,0.47732
522.00,0.47814
523.00,0.48336
524.00,0.48747
525.00,0.49126
526.00,0.49388
527.00,0.49746
528.00,0.50112
529.00,0.50501
530.00,0.51260
531.00,0.51249
532.00,0.51388
533.00,0.51858
534.00,0.51918
535.00,0.52251
536.00,0.52153
537.00,0.52921
538.00,0.53011
539.00,0.53502
540.00,0.53709
541.00,0.53834
542.00,0.54273
543.00,0.54242
544.00,0.54863
545.00,0.54449
546.00,0.55160
547.00,0.55307
548.00,0.55167
549.00,0.55446
550.00,0.55702
551.00,0.55044
552.00,0.55378
553.00,0.55602
554.00,0.55969
555.00,0.56233
556.00,0.56541
557.00,0.56623
558.00,0.56516
559.00,0.56787
560.00,0.57531
561.00,0.56925
562.00,0.58197
563.00,0.57533
564.00,0.58122
565.00,0.58593
566.00,0.58331
567.00,0.59187
568.00,0.59412
569.00,0.59615
570.00,0.60418
571.00,0.60923
572.00,0.61369
573.00,0.61846
574.00,0.62921
575.00,0.63599
576.00,0.64728
577.00,0.65488
578.00,0.66090
579.00,0.66925
580.00,0.67801
581.00,0.69507
582.00,0.70127
583.00,0.71610
584.00,0.73126
585.00,0.74384
586.00,0.76456
587.00,0.77872
588.00,0.79693
589.00,0.82048
590.00,0.84132
591.00,0.86173
592.00,0.88789
593.00,0.91691
594.00,0.94954
595.00,0.97776
596.00,1.01242
597.00,1.05465
598.00,1.09071
599.00,1.13270
600.00,1.17832
601.00,1.22199
602.00,1.28397
603.00,1.33219
604.00,1.39400
605.00,1.45922
606.00,1.53105
607.00,1.59887
608.00,1.68188
609.00,1.76196
610.00,1.84238
611.00,1.94771
612.00,2.04668
613.00,2.14820
614.00,2.27050
615.00,2.39493
616.00,2.52346
617.00,2.66559
618.00,2.81872
619.00,2.97252
620.00,3.15224
621.00,3.32687
622.00,3.50903
623.00,3.71710
624.00,3.90760
625.00,4.12692
626.00,4.34881
627.00,4.58435
628.00,4.82850
629.00,5.08152
630.00,5.33798
631.00,5.62262
632.00,5.91001
633.00,6.21137
634.00,6.50476
635.00,6.84156
636.00,7.17427
637.00,7.49854
638.00,7.87589
639.00,8.23831
640.00,8.58088
641.00,8.97418
642.00,9.36505
643.00,9.77596
644.00,10.19355
645.00,10.58497
646.00,10.96723
647.00,11.39790
648.00,11.78847
649.00,12.21926
650.00,12.65275
651.00,13.08415
652.00,13.49858
653.00,13.93331
654.00,14.37241
655.00,14.78046
656.00,15.23179
657.00,15.62240
658.00,16.08763
659.00,16.53076
660.00,16.97957
661.00,17.46151
662.00,17.86451
663.00,18.33232
664.00,18.79683
665.00,19.21316
666.00,19.67723
667.00,20.09271
668.00,20.54496
669.00,20.96494
670.00,21.36238
671.00,21.83360
672.00,22.22209
673.00,22.59946
674.00,23.00023
675.00,23.47563
676.00,23.86351
677.00,24.20577
678.00,24.65988
679.00,25.12779
680.00,25.43364
681.00,25.87015
682.00,26.25982
683.00,26.60735
684.00,27.00080
685.00,27.36504
686.00,27.71670
687.00,28.09580
688.00,28.43123
689.00,28.68719
690.00,29.06057
691.00,29.41175
692.00,29.69740
693.00,29.96219
694.00,30.34076
695.00,30.58891
696.00,30.85563
697.00,31.07872
698.00,31.44273
699.00,31.66915
700.00,31.89646
701.00,32.15162
702.00,32.33575
703.00,32.67297
704.00,32.81200
705.00,33.05908
706.00,33.37258
707.00,33.49387
708.00,33.66949
709.00,33.87482
710.00,34.11683
711.00,34.28150
712.00,34.43813
713.00,34.63532
714.00,34.80437
715.00,34.99740
716.00,35.07968
717.00,35.27657
718.00,35.45118
719.00,35.72901
720.00,35.75967
721.00,35.98115
722.00,36.17074
723.00,36.25194
724.00,36.49473
725.00,36.62357
726.00,36.69480
727.00,36.85635
728.00,37.22762
729.00,37.34146
730.00,37.28569
731.00,37.55001
732.00,37.77557
733.00,37.84968
734.00,38.14695
735.00,38.21253
736.00,38.53631
737.00,38.58286
738.00,38.73067
739.00,38.90833
740.00,39.06115
741.00,39.17934
742.00,39.53336
743.00,39.66288
744.00,39.72788
745.00,39.91608
746.00,40.14548
747.00,40.18998
748.00,40.68685
749.00,40.66590
750.00,40.78626
751.00,41.05179
752.00,41.16648
753.00,41.36759
754.00,41.62380
755.00,41.72591
756.00,41.92850
757.00,42.06089
758.00,42.20068
759.00,42.37064
760.00,42.58898
761.00,42.88901
762.00,42.98332
763.00,43.11754
764.00,43.27642
765.00,43.55128
766.00,43.74129
767.00,43.78562
768.00,43.92957
769.00,44.46317
770.00,44.43486
771.00,44.55890
772.00,44.65360
773.00,44.99799
774.00,45.13348
775.00,45.25783
776.00,45.34802
777.00,45.64470
778.00,45.66796
779.00,45.53829
780.00,45.75016
781.00,46.14018
782.00,46.16811
783.00,46.28264
784.00,46.42150
785.00,46.53522
786.00,46.76200
787.00,46.60989
788.00,46.91116
789.00,47.12124
790.00,47.09275
791.00,47.32606
792.00,47.36116
793.00,47.52160
794.00,47.62555
795.00,47.55893
796.00,48.00233
797.00,47.76802
798.00,48.05768
799.00,48.18999
800.00,48.29651
801.00,48.30225
802.00,48.32985
803.00,48.72734
804.00,48.57000
805.00,49.02947
806.00,48.67827
807.00,49.02939
808.00,49.16677
809.00,48.88734
810.00,49.11233
811.00,49.14364
812.00,49.39013
813.00,49.35863
814.00,49.51225
815.00,49.56993
816.00,49.61764
817.00,49.79337
818.00,49.90304
819.00,49.93888
820.00,49.88649
821.00,50.05931
822.00,50.27611
823.00,50.23620
824.00,50.47391
825.00,50.35648
826.00,50.27018
827.00,50.52403
828.00,50.11626
829.00,50.28109
830.00,50.46155
831.00,50.60802
832.00,50.49472
833.00,50.95022
834.00,50.33984
835.00,50.70382
836.00,50.40488
837.00,50.71521
838.00,50.82124
839.00,51.02357
840.00,50.64346
841.00,50.33178
842.00,50.96132
843.00,51.46802
844.00,50.67140
845.00,50.86355
846.00,50.67031
847.00,50.68644
848.00,50.64024
849.00,50.46512
850.00,50.88145
851.00,50.56237
852.00,51.42592
853.00,51.09083
854.00,51.80092
855.00,49.67526
856.00,50.49905
857.00,49.36167
858.00,50.52751
859.00,51.91904
860.00,49.92148
861.00,50.34973
862.00,52.13073
863.00,50.55345
864.00,49.33175
865.00,48.17005
866.00,51.25429
867.00,49.06819
868.00,50.42825
869.00,47.18306
870.00,52.20777
871.00,48.17688
872.00,51.08506
873.00,50.01311
874.00,51.14901
875.00,48.17104
876.00,44.80967
877.00,47.43737
878.00,54.41484
879.00,47.30681
880.00,48.95875
881.00,45.89039
882.00,45.42992
883.00,46.96771
884.00,47.10306
885.00,49.94476
886.00,46.89090
887.00,51.20248
888.00,44.90708
889.00,49.10197
890.00,48.57956
891.00,45.14093
892.00,49.61434
893.00,44.99168
894.00,49.22191
895.00,47.63141
896.00,51.08930
897.00,51.25698
898.00,48.57801
899.00,44.93595
900.00,42.82704
