"Ag2BiI5_X - RawData"
"Wavelength nm.","T%"
400.00,0.01942
401.00,0.02040
402.00,0.01968
403.00,0.02130
404.00,0.02156
405.00,0.02106
406.00,0.02151
407.00,0.02300
408.00,0.02200
409.00,0.02312
410.00,0.02388
411.00,0.02286
412.00,0.02267
413.00,0.02332
414.00,0.02386
415.00,0.02318
416.00,0.02451
417.00,0.02603
418.00,0.02364
419.00,0.02479
420.00,0.02522
421.00,0.02603
422.00,0.02648
423.00,0.02710
424.00,0.02893
425.00,0.03029
426.00,0.03328
427.00,0.03720
428.00,0.03777
429.00,0.04287
430.00,0.04675
431.00,0.05029
432.00,0.05184
433.00,0.05389
434.00,0.05569
435.00,0.05919
436.00,0.05954
437.00,0.06188
438.00,0.06434
439.00,0.06419
440.00,0.06715
441.00,0.06689
442.00,0.06987
443.00,0.07053
444.00,0.07134
445.00,0.07410
446.00,0.07598
447.00,0.07709
448.00,0.08025
449.00,0.08243
450.00,0.08100
451.00,0.08267
452.00,0.08288
453.00,0.08595
454.00,0.08918
455.00,0.09217
456.00,0.09306
457.00,0.09444
458.00,0.09642
459.00,0.10018
460.00,0.10119
461.00,0.10123
462.00,0.10339
463.00,0.10601
464.00,0.10748
465.00,0.11187
466.00,0.11372
467.00,0.11532
468.00,0.11670
469.00,0.11701
470.00,0.12078
471.00,0.12163
472.00,0.12429
473.00,0.12750
474.00,0.12858
475.00,0.12902
476.00,0.13073
477.00,0.13470
478.00,0.13809
479.00,0.13836
480.00,0.14044
481.00,0.14324
482.00,0.14655
483.00,0.14905
484.00,0.14788
485.00,0.15410
486.00,0.15634
487.00,0.15735
488.00,0.15889
489.00,0.16510
490.00,0.16334
491.00,0.16821
492.00,0.17012
493.00,0.17157
494.00,0.17470
495.00,0.17968
496.00,0.18024
497.00,0.18121
498.00,0.18626
499.00,0.18602
500.00,0.19224
501.00,0.19241
502.00,0.19532
503.00,0.19942
504.00,0.20347
505.00,0.20164
506.00,0.20954
507.00,0.21069
508.00,0.21396
509.00,0.21575
510.00,0.22158
511.00,0.22214
512.00,0.22467
513.00,0.22953
514.00,0.23414
515.00,0.23507
516.00,0.23929
517.00,0.23960
518.00,0.24696
519.00,0.25059
520.00,0.25459
521.00,0.25418
522.00,0.25741
523.00,0.26354
524.00,0.26581
525.00,0.26556
526.00,0.27326
527.00,0.27522
528.00,0.28098
529.00,0.28084
530.00,0.28601
531.00,0.28975
532.00,0.29435
533.00,0.29498
534.00,0.29516
535.00,0.30193
536.00,0.30344
537.00,0.30704
538.00,0.30973
539.00,0.31253
540.00,0.31508
541.00,0.31799
542.00,0.32225
543.00,0.32497
544.00,0.32684
545.00,0.33069
546.00,0.33634
547.00,0.33761
548.00,0.34151
549.00,0.33856
550.00,0.34699
551.00,0.34497
552.00,0.35042
553.00,0.35268
554.00,0.35592
555.00,0.35594
556.00,0.36273
557.00,0.36557
558.00,0.36913
559.00,0.37289
560.00,0.37643
561.00,0.38012
562.00,0.38669
563.00,0.38803
564.00,0.39340
565.00,0.39959
566.00,0.40355
567.00,0.40904
568.00,0.41664
569.00,0.42131
570.00,0.43345
571.00,0.44082
572.00,0.44629
573.00,0.45769
574.00,0.46462
575.00,0.47388
576.00,0.48574
577.00,0.49663
578.00,0.50994
579.00,0.51861
580.00,0.53436
581.00,0.55071
582.00,0.56374
583.00,0.58332
584.00,0.59887
585.00,0.61567
586.00,0.63581
587.00,0.65948
588.00,0.68122
589.00,0.70546
590.00,0.73579
591.00,0.76574
592.00,0.79853
593.00,0.83124
594.00,0.87352
595.00,0.91123
596.00,0.95096
597.00,0.99624
598.00,1.04421
599.00,1.09938
600.00,1.15427
601.00,1.21574
602.00,1.27769
603.00,1.34618
604.00,1.42076
605.00,1.50255
606.00,1.59011
607.00,1.68044
608.00,1.76833
609.00,1.86637
610.00,1.97435
611.00,2.09078
612.00,2.21774
613.00,2.35007
614.00,2.48212
615.00,2.63463
616.00,2.79278
617.00,2.97037
618.00,3.14900
619.00,3.33116
620.00,3.53801
621.00,3.75273
622.00,3.97915
623.00,4.20872
624.00,4.44037
625.00,4.69375
626.00,4.95225
627.00,5.22124
628.00,5.51949
629.00,5.81991
630.00,6.11001
631.00,6.41853
632.00,6.75256
633.00,7.08978
634.00,7.43775
635.00,7.82085
636.00,8.21280
637.00,8.57651
638.00,8.98767
639.00,9.38658
640.00,9.80813
641.00,10.25722
642.00,10.66724
643.00,11.10634
644.00,11.58041
645.00,11.99240
646.00,12.43655
647.00,12.90256
648.00,13.36093
649.00,13.82361
650.00,14.31754
651.00,14.77169
652.00,15.22719
653.00,15.69109
654.00,16.12776
655.00,16.61196
656.00,17.08688
657.00,17.54225
658.00,18.02621
659.00,18.45165
660.00,18.90087
661.00,19.40983
662.00,19.90170
663.00,20.35064
664.00,20.77874
665.00,21.27122
666.00,21.73742
667.00,22.17895
668.00,22.57420
669.00,23.06319
670.00,23.46166
671.00,23.90003
672.00,24.31965
673.00,24.70499
674.00,25.09091
675.00,25.51494
676.00,25.91580
677.00,26.31094
678.00,26.69853
679.00,27.13675
680.00,27.52065
681.00,27.87432
682.00,28.27098
683.00,28.67663
684.00,28.99941
685.00,29.37694
686.00,29.77717
687.00,30.10325
688.00,30.48496
689.00,30.89001
690.00,31.14591
691.00,31.41106
692.00,31.85546
693.00,32.13975
694.00,32.37150
695.00,32.75874
696.00,32.98233
697.00,33.31430
698.00,33.61816
699.00,33.84030
700.00,34.12043
701.00,34.33280
702.00,34.61799
703.00,34.90277
704.00,35.13994
705.00,35.31235
706.00,35.64638
707.00,35.88588
708.00,36.10165
709.00,36.19004
710.00,36.46088
711.00,36.65411
712.00,36.70524
713.00,37.11646
714.00,37.15505
715.00,37.26601
716.00,37.41947
717.00,37.60047
718.00,37.73357
719.00,37.79466
720.00,37.97129
721.00,38.01806
722.00,38.07736
723.00,38.37570
724.00,38.42707
725.00,38.59675
726.00,38.63335
727.00,38.74049
728.00,38.90889
729.00,39.00897
730.00,39.00592
731.00,39.04862
732.00,39.32575
733.00,39.25705
734.00,39.30265
735.00,39.32979
736.00,39.44810
737.00,39.40421
738.00,39.52677
739.00,39.76001
740.00,39.82509
741.00,39.76693
742.00,39.84399
743.00,39.89002
744.00,39.80531
745.00,39.89967
746.00,40.05806
747.00,40.09916
748.00,40.11394
749.00,40.34432
750.00,40.23681
751.00,40.45045
752.00,40.44141
753.00,40.67178
754.00,40.64709
755.00,40.74048
756.00,40.63605
757.00,40.60868
758.00,40.71240
759.00,40.75719
760.00,40.82128
761.00,40.97196
762.00,41.09086
763.00,41.15143
764.00,41.05566
765.00,41.26173
766.00,41.33469
767.00,41.36828
768.00,41.39595
769.00,41.39724
770.00,41.62017
771.00,41.50831
772.00,41.63820
773.00,41.68530
774.00,41.78519
775.00,42.01331
776.00,41.83913
777.00,42.05876
778.00,42.16010
779.00,42.23470
780.00,42.18172
781.00,42.07911
782.00,42.37272
783.00,42.48940
784.00,42.48469
785.00,42.53760
786.00,42.61762
787.00,42.60491
788.00,42.88865
789.00,42.81666
790.00,42.85530
791.00,43.02656
792.00,42.85947
793.00,43.18969
794.00,42.83304
795.00,42.92064
796.00,43.14297
797.00,43.08894
798.00,43.23274
799.00,43.21695
800.00,43.37928
801.00,43.35053
802.00,43.58237
803.00,43.67795
804.00,43.67114
805.00,43.68648
806.00,43.74897
807.00,43.94877
808.00,43.84706
809.00,43.95401
810.00,43.84044
811.00,43.92546
812.00,44.44385
813.00,44.17134
814.00,44.37804
815.00,44.53253
816.00,44.33298
817.00,44.58924
818.00,44.63875
819.00,44.81394
820.00,45.07078
821.00,44.68139
822.00,45.04625
823.00,45.03218
824.00,45.13484
825.00,45.21902
826.00,45.20781
827.00,45.44173
828.00,45.68948
829.00,45.76147
830.00,45.26508
831.00,45.70305
832.00,45.69703
833.00,46.06233
834.00,46.16685
835.00,45.76467
836.00,45.60561
837.00,45.70931
838.00,45.95924
839.00,46.57981
840.00,46.12241
841.00,46.48491
842.00,46.43143
843.00,46.80752
844.00,45.99487
845.00,46.60095
846.00,46.30681
847.00,47.50532
848.00,47.33925
849.00,46.92162
850.00,47.32906
851.00,47.50456
852.00,47.67826
853.00,48.79214
854.00,47.15451
855.00,46.53685
856.00,47.56225
857.00,47.80669
858.00,49.80982
859.00,47.26920
860.00,50.09148
861.00,47.65452
862.00,47.43026
863.00,45.92048
864.00,46.95632
865.00,48.90402
866.00,49.55314
867.00,48.06577
868.00,50.09401
869.00,48.36007
870.00,49.15103
871.00,50.89738
872.00,52.17522
873.00,49.42364
874.00,51.41897
875.00,47.70961
876.00,45.06725
877.00,48.60653
878.00,48.51366
879.00,43.97413
880.00,48.39883
881.00,50.26708
882.00,50.48508
883.00,48.39877
884.00,52.07161
885.00,47.33257
886.00,51.84027
887.00,50.14899
888.00,49.61208
889.00,50.66236
890.00,50.78186
891.00,49.25331
892.00,49.15892
893.00,51.47670
894.00,52.20715
895.00,44.19808
896.00,47.00590
897.00,53.72903
898.00,42.94626
899.00,58.36079
900.00,49.76553
